Sensor Model:   CX-1050-SD-HT-1.4L
Serial Number:  X204446
Interpolation Method   Lagrangian
SetPoint Limit: 325      (Kelvin)
Data Format:    4      (Log ?/Kelvin)
Number of Breakpoints:   39

No.   Units      Temperature (K)

  1  1.82373       325.0
  2  1.82492       324.0
  3  1.83331       317.0
  4  1.85205       302.0
  5  1.87193       287.0
  6  1.89306       272.0
  7  1.91548       257.0
  8  1.93942       242.0
  9  1.96497       227.0
 10  1.99231       212.0
 11  2.02167       197.0
 12  2.05329       182.0
 13  2.08747       167.0
 14  2.12465       152.0
 15  2.16527       137.0
 16  2.21006       122.0
 17  2.24616       111.0
 18  2.32281        90.5
 19  2.38963        75.5
 20  2.46125        62.0
 21  2.49158        57.0
 22  2.56531        46.4
 23  2.60593        41.4
 24  2.65251        36.3
 25  2.70477        31.3
 26  2.76582        26.3
 27  2.83963        21.3
 28  2.93389        16.3
 29  3.02117        12.8
 30  3.08821        10.7
 31  3.17378         8.6
 32  3.23589         7.4
 33  3.32769         6.0
 34  3.39477         5.2
 35  3.47822         4.4
 36  3.57146         3.7
 37  3.67505         3.1
 38  3.78806         2.6
 39  3.94070         2.1
